LabVIEW Measurement	
Writer_Version	2
Reader_Version	2
Separator	Tab
Decimal_Separator	.
Multi_Headings	No
X_Columns	One
Time_Pref	Absolute
Operator	azeem.iqbal
Date	2017/06/23
Time	12:34:09.7532916069030761719
***End_of_Header***	
	
Channels	1	
Samples	1	
Date	2017/06/23	
Time	12:34:09.7532916069030761719	
X_Dimension	Time	
X0	0.0000000000000000E+0	
Delta_X	1.000000	
***End_of_Header***		
X_Value	Untitled	Comment
0.000000	34.795178
0.199000	3.117567
0.400000	6.008233
0.600000	8.636111
0.799000	10.991187
0.999000	13.132165
1.199000	15.044593
1.400000	16.828382
1.600000	18.495208
1.799000	19.999207
2.000000	21.389073
2.199000	22.629993
2.400000	23.735503
2.599000	24.785706
2.800000	25.751732
3.000000	26.629938
3.199000	27.417011
3.400000	28.121235
3.599000	28.738841
3.799000	29.300301
4.000000	29.833316
4.199000	30.306578
4.400000	30.725516
4.599000	31.128967
4.799000	31.461843
4.999000	31.798355
5.199000	32.092976
5.399000	32.360814
5.600000	32.626899
5.799000	32.823599
6.000000	33.025017
6.199000	33.196824
6.399000	33.319108
6.600000	33.452880
6.800000	33.574491
6.999000	33.673745
7.200000	33.797877
7.400000	33.876822
7.600000	33.937288
7.799000	34.003560
8.000000	34.086409
8.200000	34.139125
8.400000	34.243545
8.600000	34.293277
8.799000	34.372386
8.999000	34.399103
9.200000	34.412089
9.400000	34.412591
9.599000	34.492150
9.799000	34.485373
10.000000	34.535721
10.200000	34.558892
10.400000	34.602556
10.600000	34.608349
10.799000	34.658815
11.000000	34.693395
11.200000	34.736129
11.399000	34.718477
11.600000	34.713731
11.800000	34.698115
12.000000	34.751718
12.199000	34.721344
12.400000	34.727640
12.600000	34.767261
12.799000	34.735474
13.000000	34.729184
13.199000	34.700859
13.399000	34.742915
13.600000	34.792444
13.799000	34.803577
14.000000	34.847592
14.199000	34.853711
14.400000	34.847974
14.599000	34.831456
14.799000	34.850341
15.000000	34.867510
15.200000	34.860518
15.400000	34.876762
15.599000	34.857627
15.799000	34.840232
15.999000	34.813115
16.200000	34.856263
16.400000	34.850294
16.600000	34.878765
16.800000	34.870750
16.999000	34.908658
17.199000	34.909226
17.400000	34.887140
17.600000	34.889663
17.800000	34.903257
17.999000	34.983387
18.200000	34.988461
18.400000	34.981774
18.600000	34.930486
18.800000	34.929069
18.999000	34.882572
19.200000	34.896811
19.400000	34.864551
19.600000	34.846526
19.799000	34.875340
20.000000	34.878936
20.199000	34.893505
20.399000	34.872848
20.599000	34.899269
20.799000	34.900690
20.999000	34.890682
21.199000	34.881584
21.399000	34.850708
21.599000	34.845243
21.800000	34.817671
21.999000	34.826510
22.199000	34.811944
22.399000	34.866494
22.600000	34.870895
22.799000	34.886195
22.999000	34.911402
23.199000	34.889118
23.401000	34.891462
23.599000	34.927488
23.799000	34.937643
23.999000	34.935576
24.199000	34.922396
24.399000	34.921715
24.599000	34.875887
24.799000	34.879434
24.999000	34.893957
25.199000	34.861957
25.399000	34.844168
25.599000	34.805390
